# BICEP2/Keck Array October 2015 Data Products
# BICEP2/Keck Array VI: Improved Constraints on Cosmology and Foregrounds When Adding 95 GHz Data from Keck Array
# http://bicepkeck.org/
#
# File: bandpass_BK14_95.txt 
# Date: 2015-10-13
#
# Experiment bandpasses for the multi-component likelihood described in BICEP2/Keck Array VI.
# See the comments in the .dataset file for further information.
# This file provides the frequency spectrum for: BK14_95.
#   Column 1 = frequency in GHz
#   Column 2 = response to a source with uniform spectral radiance
# See Planck 2013 results IX and BK-II for further details.

35.000 0
35.600 0.00143
36.200 0.00088
36.800 0.00107
37.400 0.00255
38.000 0.00239
38.600 0.00056
39.200 -0.0004
39.800 0.00033
40.400 0.00111
41.000 0.00115
41.600 0.00076
42.200 0.0002
42.800 -0.00022
43.400 -0.00019
44.000 -6e-05
44.600 0.0001
45.200 0.0004
45.800 0.00046
46.400 0.00138
47.000 0.00253
47.600 0.00289
48.200 0.00282
48.800 0.00276
49.400 0.00315
50.000 0.00368
50.600 0.00375
51.200 0.00328
51.800 0.00251
52.400 0.00153
53.000 0.00062
53.600 0
54.200 -0.00071
54.800 -0.0016
55.400 -0.00164
56.000 -0.00214
56.600 -0.00337
57.200 -0.00366
57.800 -0.0033
58.400 -0.00336
59.000 -0.00355
59.600 -0.00325
60.200 -0.00299
60.800 -0.00343
61.400 -0.00402
62.000 -0.004
62.600 -0.00386
63.200 -0.00338
63.800 -0.00277
64.400 -0.00285
65.000 -0.00246
65.600 -0.00142
66.200 -0.00079
66.800 -0.0006
67.400 -0.00039
68.000 5e-05
68.600 0.00082
69.200 0.00172
69.800 0.00202
70.400 0.0018
71.000 0.0032
71.600 0.00602
72.200 0.00606
72.800 0.00602
73.400 0.00995
74.000 0.01527
74.600 0.01855
75.200 0.02027
75.800 0.02524
76.400 0.03632
77.000 0.04758
77.600 0.05073
78.200 0.052
78.800 0.0711
79.400 0.10849
80.000 0.12935
80.600 0.13177
81.200 0.17371
81.800 0.25065
82.400 0.2976
83.000 0.31407
83.600 0.37106
84.200 0.48084
84.800 0.57421
85.400 0.61323
86.000 0.64582
86.600 0.71966
87.200 0.80963
87.800 0.86302
88.400 0.87534
89.000 0.89852
89.600 0.93579
90.200 0.95333
90.800 0.95842
91.400 0.97195
92.000 0.99078
92.600 1
93.200 0.98839
93.800 0.95357
94.400 0.91067
95.000 0.89012
95.600 0.90214
96.200 0.91092
96.800 0.89105
97.400 0.87427
98.000 0.87325
98.600 0.86133
99.200 0.83943
99.800 0.81944
100.400 0.79971
101.000 0.77869
101.600 0.75643
102.200 0.72759
102.800 0.68642
103.400 0.63495
104.000 0.57654
104.600 0.50804
105.200 0.42951
105.800 0.35456
106.400 0.29482
107.000 0.24164
107.600 0.18946
108.200 0.14449
108.800 0.11122
109.400 0.08609
110.000 0.06434
110.600 0.04589
111.200 0.03323
111.800 0.02631
112.400 0.0216
113.000 0.01625
113.600 0.01152
114.200 0.00945
114.800 0.00795
115.400 0.00531
116.000 0.00319
116.600 0.00236
117.200 0.00197
117.800 0.00144
118.400 0.00097
119.000 0.00076
119.600 0.00066
120.200 0.00051
120.800 0.00041
121.400 0.0004
122.000 0.00031
122.600 0.00025
123.200 0.0003
123.800 0.00032
124.400 0.00035
125.000 0.00052
125.600 0.00073
126.200 0.00089
126.800 0.00103
127.400 0.00118
128.000 0.00131
128.600 0.0014
129.200 0.00149
129.800 0.00151
130.400 0.00146
131.000 0.00145
131.600 0.00144
132.200 0.00139
132.800 0.00128
133.400 0.00115
134.000 0.00105
134.600 0.00095
135.200 0.00085
135.800 0.00076
136.400 0.00068
137.000 0.00061
137.600 0.00054
138.200 0.00048
138.800 0.00041
139.400 0.00035
140.000 0.00032
140.600 0.00031
141.200 0.00031
141.800 0.00031
142.400 0.0003
143.000 0.00031
143.600 0.00033
144.200 0.00035
144.800 0.00036
145.400 0.00039
146.000 0.00042
146.600 0.00045
147.200 0.00045
147.800 0.00045
148.400 0.00045
149.000 0.00046
149.600 0.00046
150.200 0.00046
150.800 0.00047
151.400 0.00048
152.000 0.00048
152.600 0.00047
153.200 0.00045
153.800 0.00043
154.400 0.00043
155.000 0.00042
155.600 0.0004
156.200 0.00039
156.800 0.00039
157.400 0.00038
158.000 0.00038
158.600 0.00037
159.200 0.00036
159.800 0.00034
160.400 0.00031
161.000 0.0003
161.600 0.00028
162.200 0.00025
162.800 0.00022
163.400 0.0002
164.000 0.00018
164.600 0

